lambda, intensity
188.96, -16.24
189.424, -16.24
189.887, -16.24
190.351, -63.05
190.815, -34.96
191.279, -56.03
191.742, -70.07
192.206, -37.3
192.669, -79.43
193.133, -51.35
193.596, 21.21
194.06, -27.94
194.523, -53.69
194.987, 9.51
195.45, 18.87
195.913, 42.28
196.376, 91.43
196.84, 18.87
197.303, 49.3
197.766, 53.98
198.229, 70.36
198.692, 110.15
199.155, 110.15
199.618, 234.2
200.081, 447.19
200.543, 426.12
201.006, 442.51
201.469, 456.55
201.932, 498.68
202.394, 484.64
202.857, 515.06
203.32, 388.68
203.782, 503.36
204.245, 412.08
204.707, 508.04
205.169, 494
205.632, 501.02
206.094, 479.96
206.556, 479.96
207.019, 482.3
207.481, 582.94
207.943, 538.47
208.405, 486.98
208.867, 505.7
209.329, 538.47
209.791, 524.43
210.253, 435.49
210.715, 522.09
211.177, 522.09
211.639, 435.49
212.1, 508.04
212.562, 515.06
213.024, 470.59
213.485, 461.23
213.947, 538.47
214.408, 538.47
214.87, 517.4
215.331, 435.49
215.793, 458.89
216.254, 472.93
216.715, 505.7
217.177, 529.11
217.638, 472.93
218.099, 423.78
218.56, 430.8
219.021, 484.64
219.482, 501.02
219.944, 510.38
220.404, 421.44
220.865, 465.91
221.326, 489.32
221.787, 454.21
222.248, 412.08
222.709, 442.51
223.169, 536.13
223.63, 510.38
224.091, 486.98
224.551, 470.59
225.012, 482.3
225.472, 510.38
225.933, 486.98
226.393, 461.23
226.854, 440.17
227.314, 440.17
227.774, 444.85
228.234, 428.46
228.695, 477.62
229.155, 465.91
229.615, 470.59
230.075, 458.89
230.535, 376.97
230.995, 475.28
231.455, 414.42
231.915, 468.25
232.375, 376.97
232.834, 501.02
233.294, 461.23
233.754, 468.25
234.214, 484.64
234.673, 510.38
235.133, 472.93
235.592, 477.62
236.052, 409.74
236.511, 489.32
236.971, 430.8
237.43, 472.93
237.889, 451.87
238.349, 442.51
238.808, 482.3
239.267, 465.91
239.726, 430.8
240.185, 454.21
240.644, 477.62
241.103, 515.06
241.562, 465.91
242.021, 475.28
242.48, 383.99
242.939, 433.15
243.398, 456.55
243.857, 540.81
244.315, 484.64
244.774, 451.87
245.233, 458.89
245.691, 451.87
246.15, 447.19
246.608, 489.32
247.067, 454.21
247.525, 465.91
247.983, 501.02
248.442, 484.64
248.9, 491.66
249.358, 421.44
249.816, 437.83
250.274, 491.66
250.733, 489.32
251.191, 472.93
251.649, 475.28
252.107, 461.23
252.564, 501.02
253.022, 468.25
253.48, 463.57
253.938, 442.51
254.396, 552.51
254.853, 524.43
255.311, 526.77
255.769, 449.53
256.226, 458.89
256.684, 503.36
257.141, 517.4
257.599, 501.02
258.056, 386.33
258.513, 494
258.971, 531.45
259.428, 477.62
259.885, 529.11
260.342, 491.66
260.799, 522.09
261.256, 531.45
261.714, 475.28
262.171, 482.3
262.627, 454.21
263.084, 489.32
263.541, 479.96
263.998, 517.4
264.455, 444.85
264.912, 486.98
265.368, 472.93
265.825, 519.75
266.281, 538.47
266.738, 486.98
267.194, 465.91
267.651, 486.98
268.107, 515.06
268.564, 449.53
269.02, 475.28
269.476, 456.55
269.933, 456.55
270.389, 484.64
270.845, 367.61
271.301, 465.91
271.757, 456.55
272.213, 428.46
272.669, 484.64
273.125, 468.25
273.581, 451.87
274.037, 451.87
274.492, 489.32
274.948, 447.19
275.404, 414.42
275.86, 416.76
276.315, 543.15
276.771, 524.43
277.226, 456.55
277.682, 458.89
278.137, 454.21
278.593, 517.4
279.048, 461.23
279.503, 461.23
279.958, 442.51
280.414, 482.3
280.869, 430.8
281.324, 435.49
281.779, 491.66
282.234, 505.7
282.689, 529.11
283.144, 433.15
283.599, 412.08
284.054, 440.17
284.508, 484.64
284.963, 468.25
285.418, 482.3
285.873, 479.96
286.327, 423.78
286.782, 437.83
287.236, 447.19
287.691, 501.02
288.145, 477.62
288.6, 496.34
289.054, 456.55
289.508, 489.32
289.963, 472.93
290.417, 461.23
290.871, 447.19
291.325, 489.32
291.779, 529.11
292.233, 407.4
292.687, 426.12
293.141, 498.68
293.595, 510.38
294.049, 496.34
294.503, 524.43
294.957, 454.21
295.41, 468.25
295.864, 458.89
296.318, 494
296.771, 512.72
297.225, 440.17
297.678, 517.4
298.132, 498.68
298.585, 405.06
299.039, 475.28
299.492, 522.09
299.945, 393.36
300.398, 524.43
300.852, 449.53
301.305, 470.59
301.758, 498.68
302.211, 503.36
302.664, 489.32
303.117, 470.59
303.57, 463.57
304.023, 515.06
304.476, 484.64
304.928, 435.49
305.381, 482.3
305.834, 557.19
306.286, 456.55
306.739, 442.51
307.192, 435.49
307.644, 505.7
308.097, 449.53
308.549, 437.83
309.001, 430.8
309.454, 458.89
309.906, 540.81
310.358, 526.77
310.81, 508.04
311.263, 428.46
311.715, 475.28
312.167, 479.96
312.619, 463.57
313.071, 463.57
313.523, 475.28
313.975, 409.74
314.426, 458.89
314.878, 454.21
315.33, 374.63
315.782, 437.83
316.233, 531.45
316.685, 479.96
317.136, 491.66
317.588, 451.87
318.039, 484.64
318.491, 522.09
318.942, 510.38
319.393, 463.57
319.845, 444.85
320.296, 419.1
320.747, 456.55
321.198, 529.11
321.649, 505.7
322.101, 416.76
322.552, 494
323.003, 494
323.453, 515.06
323.904, 550.17
324.355, 496.34
324.806, 512.72
325.257, 489.32
325.707, 489.32
326.158, 475.28
326.609, 503.36
327.059, 494
327.51, 468.25
327.96, 524.43
328.411, 531.45
328.861, 470.59
329.311, 540.81
329.762, 447.19
330.212, 409.74
330.662, 494
331.112, 575.92
331.562, 489.32
332.012, 522.09
332.462, 522.09
332.912, 517.4
333.362, 505.7
333.812, 547.83
334.262, 526.77
334.712, 526.77
335.161, 524.43
335.611, 559.53
336.061, 510.38
336.51, 589.96
336.96, 486.98
337.409, 601.66
337.859, 592.3
338.308, 566.56
338.758, 625.07
339.207, 582.94
339.656, 669.54
340.105, 533.79
340.555, 594.64
341.004, 653.16
341.453, 589.96
341.902, 632.09
342.351, 634.43
342.8, 585.28
343.249, 667.2
343.698, 756.14
344.146, 697.63
344.595, 718.69
345.044, 618.05
345.493, 777.2
345.941, 704.65
346.39, 753.8
346.838, 779.54
347.287, 816.99
347.735, 756.14
348.184, 767.84
348.632, 795.93
349.08, 819.33
349.529, 781.89
349.977, 760.82
350.425, 835.72
350.873, 849.76
351.321, 838.06
351.769, 828.7
352.217, 894.23
352.665, 880.19
353.113, 873.17
353.561, 1006.58
354.009, 950.4
354.456, 917.64
354.904, 891.89
355.352, 936.36
355.799, 964.45
356.247, 945.72
356.694, 1102.54
357.142, 978.49
357.589, 1046.37
358.037, 1018.28
358.484, 1046.37
358.931, 999.56
359.379, 1067.43
359.826, 1121.26
360.273, 1079.13
360.72, 1055.73
361.167, 1154.03
361.614, 1154.03
362.061, 1168.07
362.508, 1207.86
362.955, 1182.12
363.402, 1184.46
363.848, 1217.22
364.295, 1242.97
364.742, 1191.48
365.188, 1254.67
365.635, 1390.42
366.082, 1374.04
366.528, 1294.46
366.975, 1320.21
367.421, 1397.45
367.867, 1306.17
368.314, 1439.58
368.76, 1474.68
369.206, 1481.71
369.652, 1418.51
370.098, 1479.36
370.545, 1547.24
370.991, 1610.43
371.437, 1465.32
371.882, 1643.2
372.328, 1589.37
372.774, 1736.82
373.22, 1561.28
373.666, 1624.48
374.111, 1647.88
374.557, 1762.57
375.003, 1643.2
375.448, 1664.27
375.894, 1732.14
376.339, 1729.8
376.785, 1797.68
377.23, 1807.04
377.675, 1809.38
378.121, 1809.38
378.566, 1837.47
379.011, 1809.38
379.456, 1842.15
379.901, 1928.75
380.346, 1839.81
380.791, 1956.83
381.236, 1919.39
381.681, 1977.9
382.126, 2005.99
382.571, 1942.79
383.016, 1963.86
383.461, 2010.67
383.905, 2031.73
384.35, 2162.8
384.794, 1989.6
385.239, 2240.04
385.683, 2160.46
386.128, 2169.82
386.572, 2258.76
387.017, 2233.02
387.461, 2284.51
387.905, 2272.81
388.349, 2319.62
388.794, 2326.64
389.238, 2275.15
389.682, 2413.24
390.126, 2389.83
390.57, 2520.9
391.014, 2504.52
391.457, 2539.63
391.901, 2516.22
392.345, 2584.1
392.789, 2602.82
393.233, 2602.82
393.676, 2453.03
394.12, 2577.08
394.563, 2563.03
395.007, 2675.38
395.45, 2670.7
395.894, 2600.48
396.337, 2757.3
396.78, 2722.19
397.224, 2820.49
397.667, 2640.27
398.11, 2806.45
398.553, 2911.77
398.996, 2951.56
399.439, 3056.89
399.882, 3035.82
400.325, 3077.95
400.768, 3031.14
401.211, 2972.63
401.654, 3192.64
402.096, 3164.55
402.539, 3115.4
402.982, 3120.08
403.424, 3244.13
403.867, 3199.66
404.309, 3288.6
404.752, 3279.24
405.194, 3290.94
405.637, 3431.37
406.079, 3349.45
406.521, 3464.14
406.963, 3510.95
407.406, 3576.48
407.848, 3543.72
408.29, 3620.96
408.732, 3733.3
409.174, 3761.39
409.616, 3761.39
410.058, 3642.02
410.499, 3864.37
410.941, 3934.59
411.383, 3962.67
411.825, 3990.76
412.266, 3939.27
412.708, 4079.7
413.15, 4072.68
413.591, 4180.34
414.033, 4058.64
414.474, 4206.09
414.915, 4135.87
415.357, 4318.43
415.798, 4372.27
416.239, 4325.46
416.68, 4334.82
417.121, 4627.39
417.563, 4447.16
418.004, 4655.47
418.445, 4599.3
418.885, 4791.22
419.326, 4676.54
419.767, 4805.27
420.208, 4826.33
420.649, 4924.63
421.089, 5062.73
421.53, 5186.77
421.971, 5111.88
422.411, 4952.72
422.852, 5137.62
423.292, 5259.33
423.733, 5259.33
424.173, 5343.59
424.613, 5296.78
425.054, 5366.99
425.494, 5558.92
425.934, 5507.43
426.374, 5427.85
426.814, 5596.37
427.254, 5706.37
427.694, 5624.45
428.134, 5874.89
428.574, 5900.64
429.014, 5750.84
429.454, 5959.15
429.893, 5867.87
430.333, 5804.67
430.773, 6048.09
431.212, 6094.9
431.652, 6202.57
432.091, 6406.19
432.531, 6265.76
432.97, 6350.02
433.41, 6490.45
433.849, 6361.72
434.288, 6408.53
434.727, 6740.89
435.167, 6445.98
435.606, 6581.73
436.045, 6787.7
436.484, 6801.74
436.923, 7005.37
437.362, 7007.71
437.801, 7056.86
438.239, 7145.8
438.678, 7162.19
439.117, 7204.32
439.556, 7405.6
439.994, 7487.52
440.433, 7461.77
440.871, 7604.55
441.31, 7461.77
441.748, 7515.61
442.187, 7740.3
442.625, 7707.53
443.063, 7597.53
443.502, 7651.36
443.94, 7773.07
444.378, 7768.38
444.816, 7775.41
445.254, 7957.97
445.692, 7943.92
446.13, 8187.34
446.568, 7964.99
447.006, 8079.68
447.444, 8189.68
447.881, 8262.24
448.319, 8369.9
448.757, 8536.08
449.194, 8405.01
449.632, 8400.33
450.07, 8435.44
450.507, 8517.36
450.944, 8578.21
451.382, 8634.38
451.819, 8753.75
452.256, 8779.5
452.694, 8938.65
453.131, 8978.44
453.568, 8926.95
454.005, 9144.62
454.442, 9055.68
454.879, 9294.41
455.316, 9528.47
455.753, 9320.16
456.19, 9682.94
456.627, 9605.7
457.063, 9650.18
457.5, 9640.81
457.937, 9638.47
458.373, 9713.37
458.81, 9537.83
459.246, 10052.75
459.683, 9720.39
460.119, 10031.68
460.556, 10368.72
460.992, 10146.37
461.428, 10300.84
461.864, 10635.54
462.301, 10326.59
462.737, 10658.95
463.173, 10857.89
463.609, 11042.79
464.045, 10885.98
464.481, 11007.69
464.917, 11005.35
465.352, 11068.54
465.788, 11187.91
466.224, 11377.49
466.66, 11550.69
467.095, 11609.2
467.531, 11618.57
467.966, 11794.11
468.402, 12297.32
468.837, 12412.01
469.273, 12529.03
469.708, 12533.72
470.143, 12524.35
470.578, 13228.85
471.014, 13006.5
471.449, 13050.97
471.884, 13568.23
472.319, 13596.32
472.754, 13643.13
473.189, 13856.12
473.624, 14537.21
474.059, 14459.98
474.493, 15040.43
474.928, 15045.11
475.363, 15356.4
475.797, 15702.8
476.232, 15709.82
476.667, 16304.32
477.101, 16409.64
477.536, 16894.13
477.97, 17104.78
478.404, 16966.69
478.839, 17301.39
479.273, 17458.2
479.707, 18223.56
480.141, 18403.78
480.575, 18630.81
481.009, 18857.84
481.444, 18712.73
481.877, 19590.43
482.311, 19695.75
482.745, 19939.17
483.179, 20531.33
483.613, 20683.46
484.047, 21036.88
484.48, 21207.74
484.914, 21507.33
485.347, 21235.83
485.781, 21734.36
486.214, 21928.63
486.648, 22047.99
487.081, 22076.08
487.515, 22899.95
487.948, 22918.67
488.381, 22909.31
488.814, 23510.83
489.247, 23829.14
489.68, 23932.12
490.113, 24550.03
490.546, 24100.64
490.979, 24580.45
491.412, 24613.22
491.845, 24557.05
492.278, 25170.27
492.711, 25614.97
493.143, 26157.97
493.576, 26347.56
494.009, 26361.6
494.441, 26902.26
494.874, 26717.36
495.306, 26899.92
495.738, 27080.14
496.171, 26867.16
496.603, 27459.31
497.035, 27194.83
497.467, 27604.42
497.9, 28231.69
498.332, 28065.51
498.764, 28645.96
499.196, 28833.21
499.628, 28830.87
500.06, 28887.04
500.491, 29305.99
500.923, 29376.21
501.355, 29741.33
501.787, 29804.53
502.218, 30272.64
502.65, 29926.24
503.081, 29989.43
503.513, 30457.54
503.944, 30305.4
504.376, 31026.29
504.807, 30651.8
505.238, 31115.23
505.67, 31115.23
506.101, 31370.35
506.532, 31323.54
506.963, 31538.87
507.394, 32065.49
507.825, 31817.39
508.256, 32334.65
508.687, 32147.4
509.118, 32456.36
509.549, 32446.99
509.979, 32374.44
510.41, 33083.62
510.841, 32971.27
511.271, 33069.58
511.702, 33289.59
512.132, 33055.53
512.563, 33771.74
512.993, 33275.54
513.424, 34190.69
513.854, 33523.64
514.284, 33954.3
514.714, 34321.76
515.145, 34424.75
515.575, 34296.02
516.005, 34899.87
516.435, 35705.02
516.865, 35485.01
517.295, 35761.19
517.724, 35300.11
518.154, 35531.82
518.584, 35873.54
519.014, 35580.97
519.443, 35672.25
519.873, 35515.44
520.303, 35908.65
520.732, 36219.94
521.161, 35730.76
521.591, 36255.04
522.02, 36648.25
522.45, 37242.75
522.879, 36711.45
523.308, 36746.56
523.737, 36886.99
524.166, 37107
524.595, 37085.93
525.024, 36952.52
525.453, 37338.71
525.882, 38209.39
526.311, 37884.06
526.74, 37107
527.169, 37437.02
527.597, 37715.54
528.026, 38314.72
528.455, 38080.66
528.883, 37509.57
529.312, 37923.85
529.74, 38090.02
530.168, 38225.78
530.597, 38164.92
531.025, 38717.29
531.453, 38925.6
531.882, 39002.83
532.31, 38714.95
532.738, 38956.02
533.166, 39335.19
533.594, 38967.73
534.022, 39243.91
534.45, 38941.98
534.878, 39398.38
535.305, 39194.76
535.733, 39798.62
536.161, 39426.47
536.588, 39798.62
537.016, 39419.45
537.444, 39625.42
537.871, 39946.07
538.299, 39719.04
538.726, 40208.21
539.153, 41488.48
539.581, 40706.74
540.008, 41022.72
540.435, 40524.18
540.862, 41018.03
541.289, 40959.52
541.716, 41280.17
542.143, 40484.39
542.57, 41352.73
542.997, 40814.41
543.424, 41654.66
543.851, 41816.16
544.277, 42284.26
544.704, 42642.37
545.131, 42326.39
545.557, 42012.76
545.984, 42176.6
546.41, 42195.32
546.837, 42731.31
547.263, 42946.64
547.69, 42593.22
548.116, 42801.52
548.542, 42127.45
548.968, 42625.98
549.394, 42050.21
549.82, 42686.84
550.246, 42661.09
550.672, 43573.9
551.098, 43321.12
551.524, 43398.36
551.95, 43885.19
552.376, 44051.37
552.802, 44531.18
553.227, 43740.08
553.653, 43576.24
554.078, 43655.82
554.504, 43992.86
554.929, 44381.38
555.355, 44154.35
555.78, 44194.14
556.206, 43948.39
556.631, 43878.17
557.056, 44049.03
557.481, 44320.53
557.906, 44236.27
558.331, 44723.1
558.756, 45160.78
559.181, 45722.51
559.606, 45034.39
560.031, 45259.09
560.456, 45249.72
560.881, 45488.46
561.305, 44922.05
561.73, 44961.84
562.155, 44690.34
562.579, 45153.76
563.004, 45436.97
563.428, 45762.3
563.853, 45635.91
564.277, 45720.17
564.701, 45366.75
565.126, 45977.63
565.55, 46120.4
565.974, 45631.23
566.398, 45865.28
566.822, 46321.69
567.246, 46747.67
567.67, 46169.55
568.094, 46579.15
568.518, 46747.67
568.941, 46967.68
569.365, 47241.52
569.789, 47419.4
570.213, 47335.14
570.636, 47704.95
571.06, 48489.02
571.483, 49111.61
571.907, 47969.43
572.33, 48900.96
572.753, 47859.42
573.177, 48196.46
573.6, 48414.13
574.023, 48414.13
574.446, 48355.61
574.869, 48592.01
575.292, 48217.52
575.715, 47798.57
576.138, 48130.92
576.561, 47941.34
576.984, 47662.82
577.407, 47672.18
577.829, 47255.56
578.252, 47604.3
578.675, 47211.09
579.097, 47491.96
579.52, 47056.62
579.942, 46735.96
580.364, 46415.31
580.787, 46326.37
581.209, 47398.34
581.631, 46450.42
582.054, 46672.77
582.476, 46504.25
582.898, 46207
583.32, 45825.5
583.742, 46235.09
584.164, 46356.8
584.586, 45954.22
585.008, 45855.92
585.429, 46078.27
585.851, 46305.3
586.273, 46211.68
586.694, 46497.23
587.116, 46621.28
587.538, 45876.99
587.959, 46616.6
588.38, 46218.71
588.802, 46567.44
589.223, 46654.04
589.644, 47349.18
590.066, 47124.49
590.487, 47009.81
590.908, 48081.77
591.329, 47873.46
591.75, 48102.84
592.171, 48051.34
592.592, 48627.12
593.013, 48470.3
593.434, 49025.01
593.854, 49355.02
594.275, 49432.26
594.696, 49692.06
595.116, 49788.02
595.537, 50073.57
595.957, 50431.67
596.378, 50586.14
596.798, 50403.58
597.218, 51147.87
597.639, 50906.8
598.059, 51068.3
598.479, 51730.67
598.899, 51021.48
599.319, 51360.86
599.739, 50991.06
600.159, 51658.11
600.579, 51515.34
600.999, 50890.41
601.419, 50927.86
601.839, 50902.12
602.259, 50281.88
602.678, 50747.64
603.098, 50623.59
603.517, 50422.31
603.937, 50712.53
604.356, 50211.66
604.776, 49357.36
605.195, 49259.06
605.614, 49074.16
606.034, 49017.99
606.453, 48486.68
606.872, 48573.28
607.291, 48070.07
607.71, 48807.34
608.129, 47576.22
608.548, 47665.16
608.967, 47864.1
609.386, 47601.96
609.805, 47063.64
610.223, 46967.68
610.642, 46984.06
611.061, 46895.12
611.479, 47133.85
611.898, 47248.54
612.316, 47154.92
612.735, 46927.89
613.153, 46574.47
613.571, 46347.43
613.99, 46363.82
614.408, 46686.81
614.826, 46024.44
615.244, 45521.23
615.662, 45893.37
616.08, 45509.52
616.498, 45404.2
616.916, 45750.6
617.334, 45181.85
617.752, 45352.71
618.169, 45839.54
618.587, 45469.73
619.005, 44982.9
619.422, 45170.15
619.84, 44512.45
620.257, 45008.65
620.675, 44870.56
621.092, 45095.25
621.509, 44641.18
621.927, 44390.75
622.344, 44568.63
622.761, 44308.83
623.178, 44332.23
623.595, 43688.59
624.012, 43580.92
624.429, 43435.81
624.846, 44070.09
625.263, 43697.95
625.68, 43796.25
626.097, 44247.97
626.513, 43726.03
626.93, 43974.13
627.346, 43861.79
627.763, 44070.09
628.179, 44217.55
628.596, 43562.2
629.012, 43906.26
629.429, 43943.7
629.845, 44194.14
630.261, 43896.89
630.677, 43648.8
631.093, 43550.49
631.509, 43700.29
631.925, 43627.73
632.341, 43639.43
632.757, 43389
633.173, 43536.45
633.589, 43489.64
634.005, 43058.98
634.42, 43468.58
634.836, 43749.44
635.252, 42827.27
635.667, 42677.47
636.083, 42686.84
636.498, 42960.68
636.913, 42946.64
637.329, 42649.39
637.744, 42864.72
638.159, 42607.26
638.574, 42487.89
638.99, 42953.66
639.405, 42171.92
639.82, 42635.34
640.235, 43007.49
640.65, 42537.04
641.064, 42080.64
641.479, 42195.32
641.894, 42445.76
642.309, 42464.49
642.723, 41984.68
643.138, 41261.45
643.552, 41247.41
643.967, 41247.41
644.381, 42001.06
644.796, 41259.11
645.21, 42101.7
645.624, 41827.86
646.038, 42394.27
646.453, 42331.08
646.867, 41930.84
647.281, 41640.62
647.695, 41326.99
648.109, 41661.68
648.523, 42120.43
648.936, 41706.15
649.35, 41673.38
649.764, 41179.53
650.178, 41392.52
650.591, 41345.71
651.005, 41715.51
651.418, 41750.62
651.832, 41277.83
652.245, 41146.76
652.659, 41619.55
653.072, 41603.17
653.485, 41385.5
653.898, 40774.62
654.312, 40409.5
654.725, 41212.3
655.138, 41387.84
655.551, 41689.77
655.964, 40758.24
656.377, 40519.5
656.789, 40793.34
657.202, 40521.84
657.615, 41326.99
658.028, 40716.11
658.44, 40189.49
658.853, 40163.74
659.265, 40182.46
659.678, 40224.59
660.09, 40105.23
660.503, 39641.8
660.915, 39599.67
661.327, 39033.26
661.739, 39541.16
662.152, 39360.94
662.564, 40219.91
662.976, 39669.89
663.388, 39704.99
663.8, 39199.44
664.211, 38965.38
664.623, 39047.3
665.035, 39227.52
665.447, 38696.22
665.858, 38560.47
666.27, 38377.91
666.682, 38626.01
667.093, 38841.34
667.505, 38431.74
667.916, 38204.71
668.327, 38090.02
668.739, 37820.86
669.15, 38602.6
669.561, 38429.4
669.972, 38429.4
670.383, 38609.62
670.794, 38406
671.205, 37701.5
671.616, 37277.86
672.027, 37348.07
672.438, 37071.89
672.849, 37312.97
673.259, 37231.05
673.67, 37507.23
674.08, 37275.52
674.491, 36753.58
674.901, 37069.55
675.312, 36285.47
675.722, 36372.07
676.133, 36554.63
676.543, 35864.18
676.953, 36432.93
677.363, 36322.92
677.773, 35728.42
678.183, 36081.84
678.593, 35059.03
679.003, 35674.59
679.413, 35995.25
679.823, 35754.17
680.233, 35213.51
680.643, 35307.13
681.052, 35328.19
681.462, 34867.11
681.872, 35274.36
682.281, 34817.96
682.691, 34714.97
683.1, 34466.88
683.509, 34026.85
683.919, 33827.91
684.328, 33767.06
684.737, 34118.14
685.146, 33764.71
685.555, 33736.63
685.964, 33423
686.373, 33607.9
686.782, 33188.94
687.191, 33132.77
687.6, 32809.78
688.009, 32685.73
688.417, 32489.12
688.826, 32292.52
689.235, 31927.39
689.643, 31990.59
690.052, 31550.57
690.46, 32116.98
690.869, 32056.12
691.277, 32496.14
691.685, 31585.68
692.093, 31267.36
692.502, 31447.58
692.91, 31510.78
693.318, 31454.61
693.726, 31674.62
694.134, 31637.17
694.542, 31360.98
694.949, 31370.35
695.357, 30827.34
695.765, 30876.49
696.173, 30534.78
696.58, 31370.35
696.988, 30911.6
697.395, 30892.88
697.803, 31019.27
698.21, 30956.07
698.618, 30967.77
699.025, 30462.22
699.432, 31318.85
699.839, 30347.53
700.247, 31030.97
700.654, 30218.8
701.061, 30223.48
701.468, 30282
701.875, 30216.46
702.281, 30179.01
702.688, 30331.15
703.095, 30071.35
